Day fraction since midnight on 	pH probe (pH)	Source pressure (Pa)
0.580992555	5.256015778	115940.3047
0.581050434	5.396605492	115948.3359
0.5811083	5.585540295	115951.2891
0.581166172	5.693595409	115941.2422
0.581224035	5.737872601	115938.5781
0.581281923	5.756812096	115928.7578
0.581339793	5.764958859	115931.5234
0.581397666	5.774633408	115930.3125
0.581455533	5.787892819	115934.3594
0.581513407	5.789560795	115920.9141
0.581571263	5.799817562	115922.7656
0.581629133	5.818188667	115912.6953
0.581687004	5.827467918	115920.125
0.581744888	5.843934059	115921.0391
0.581802742	5.86229372	115906.9609
0.58186063	5.883541584	115911.6328
0.581918485	5.899893761	115905.1016
0.581976358	5.925601959	115905.9297
0.582034234	5.944644451	115900.3672
0.582092108	5.96826458	115912.3125
0.582149984	5.990482807	115901.6328
0.582207855	6.022170544	115883.2344
0.58226572	6.042961121	115892.4922
0.582323587	6.074994087	115877.9141
0.582381457	6.098454952	115894.8828
0.582439316	6.123673439	115885.9375
0.5824972	6.150209427	115876.0469
0.582555067	6.186495781	115878.8047
0.582612935	6.20850277	115869.6641
0.582670804	6.242101193	115870.7188
0.582728685	6.271492958	115877.6328
0.582786543	6.307625294	115860.9531
0.582844435	6.33510685	115856.9297
0.582902299	6.369570732	115860.2813
0.582960156	6.399472237	115841.8203
0.583018028	6.442548275	115855.1094
0.583075896	6.475567818	115846.5703
0.583133779	6.521639347	115853.1094
0.583191637	6.557895184	115836.2891
0.583249514	6.609530449	115862.9219
0.583307377	6.65395689	115822.9375
0.583365256	6.710553169	115837.6797
0.583423114	6.765451431	115831.125
0.583480998	6.829981327	115820.6953
0.583538865	6.921288014	115829.5313
0.583596736	6.986531735	115813.6875
0.583654613	7.033927441	115804.5391
0.583712529	7.102235317	115796.5156
0.583770402	7.165336609	115816.3281
0.583828271	7.246209621	115803.6875
0.583886127	7.322675705	115808.5781
