Day fraction since midnight on 	pH probe (pH)	Source pressure (Pa)
0.580791932	6.580985546	113478.7969
0.580849809	6.569701195	113476.0469
0.580907685	6.559776783	113477.1797
0.580965552	6.546180725	113466.9844
0.581023413	6.535451889	113452.6016
0.58108128	6.495425701	113468.6016
0.581139166	6.464830399	113453.7656
0.581197035	6.495694637	113463.4688
0.581254855	6.953952313	113438.8281
0.581312723	7.05813551	113466.1875
0.581370598	7.145888805	113461.8047
0.581428456	7.20423317	113454.7578
0.581486334	7.271039009	113453.5234
0.5815442	7.374183178	113447.0469
0.581602071	7.497671127	113445
0.581659948	7.624482155	113439.4141
0.581717814	7.749992847	113443.1875
0.581775687	7.870789051	113442.2578
0.58183355	8.000595093	113444.8516
0.581891439	8.122821808	113420.7266
0.581949302	8.242389679	113441.2734
0.582007182	8.354230881	113428.7969
0.582065038	8.464367867	113427.5781
0.582122904	8.575163841	113429.75
0.582180792	8.663003922	113400.2188
0.582238652	8.736511231	113403.9766
0.582296517	8.814700127	113415.3438
0.582354405	8.874073982	113398.7969
0.582412268	8.933184624	113398.8438
0.582470142	8.987095833	113415.875
0.582528002	9.036561012	113404.1797
0.582585887	9.070714951	113387.8828
0.582643749	9.103315353	113409.1641
0.582701615	9.141648293	113391.1563
0.5827595	9.171103478	113384.8438
0.582817352	9.199299812	113380.2578
0.582875228	9.22926712	113365.3828
0.582933099	9.262299538	113382.7031
0.582990972	9.280497551	113371.125
0.583048831	9.309409142	113372.1641
0.583106713	9.32834816	113359.8438
0.583164586	9.351756096	113356.8281
0.583222452	9.375425339	113358.7266
